LabVIEW Measurement,
Writer_Version,2
Reader_Version,2
Separator,Comma
Decimal_Separator,.
Multi_Headings,Yes
X_Columns,One
Time_Pref,Absolute
Operator,labuser
Date,2022/03/27
Time,18:13:21.6750278499425851425
***End_of_Header***,
,
Channels,1,
Samples,10000,
Date,2022/03/27,
Time,18:13:21.6750278499425851425,
Y_Unit_Label,Volts,
X_Dimension,Time,
X0,0.0000000000000000E+0,
Delta_X,0.000500,
***End_of_Header***,,
X_Value,Voltage,Comment
0.000000,0.076421
0.000500,0.071591
0.001000,0.057422
0.001500,0.045185
0.002000,0.030050
0.002500,0.018135
0.003000,0.002678
0.003500,0.012983
0.004000,0.031660
0.004500,0.050338
0.005000,0.061608
0.005500,0.071269
0.006000,0.076421
0.006500,0.079642
0.007000,0.083828
0.007500,0.085438
0.008000,0.082862
0.008500,0.077388
0.009000,0.066761
0.009500,0.053558
0.010000,0.038745
0.010500,0.023610
0.011000,0.011373
0.011500,0.004932
0.012000,0.021033
0.012500,0.035203
0.013000,0.053880
0.013500,0.064185
0.014000,0.072557
0.014500,0.077066
0.015000,0.081896
0.015500,0.085438
0.016000,0.082540
0.016500,0.081896
0.017000,0.075133
0.017500,0.061608
0.018000,0.049050
0.018500,0.033914
0.019000,0.021033
0.019500,0.005576
0.020000,0.008153
0.020500,0.025220
0.021000,0.042931
0.021500,0.057744
0.022000,0.067405
0.022500,0.074167
0.023000,0.079642
0.023500,0.083506
0.024000,0.083828
0.024500,0.084150
0.025000,0.079320
0.025500,0.071591
0.026000,0.060320
0.026500,0.045829
0.027000,0.028440
0.027500,0.014915
0.028000,0.003000
0.028500,0.014593
0.029000,0.033270
0.029500,0.048405
0.030000,0.060964
0.030500,0.071269
0.031000,0.078354
0.031500,0.082540
0.032000,0.086082
0.032500,0.085760
0.033000,0.083506
0.033500,0.077066
0.034000,0.066439
0.034500,0.053558
0.035000,0.036813
0.035500,0.025542
0.036000,0.011695
0.036500,-0.002152
0.037000,0.019101
0.037500,0.037457
0.038000,0.052592
0.038500,0.065795
0.039000,0.073201
0.039500,0.077710
0.040000,0.082862
0.040500,0.083828
0.041000,0.080286
0.041500,0.079964
0.042000,0.072879
0.042500,0.061608
0.043000,0.047761
0.043500,0.033270
0.044000,0.019423
0.044500,0.004932
0.045000,0.010407
0.045500,0.026830
0.046000,0.043253
0.046500,0.059354
0.047000,0.068371
0.047500,0.078032
0.048000,0.079964
0.048500,0.083828
0.049000,0.084472
0.049500,0.082218
0.050000,0.079320
0.050500,0.072235
0.051000,0.060642
0.051500,0.045829
0.052000,0.031338
0.052500,0.017813
0.053000,0.003644
0.053500,0.011051
0.054000,0.031338
0.054500,0.046473
0.055000,0.059998
0.055500,0.069337
0.056000,0.075133
0.056500,0.080608
0.057000,0.086726
0.057500,0.086726
0.058000,0.080608
0.058500,0.078354
0.059000,0.068371
0.059500,0.054846
0.060000,0.036491
0.060500,0.024576
0.061000,0.010085
0.061500,0.005898
0.062000,0.020389
0.062500,0.038101
0.063000,0.051948
0.063500,0.065473
0.064000,0.074489
0.064500,0.077710
0.065000,0.085116
0.065500,0.087370
0.066000,0.084794
0.066500,0.083184
0.067000,0.075133
0.067500,0.063863
0.068000,0.050660
0.068500,0.033592
0.069000,0.022322
0.069500,0.006542
0.070000,0.004610
0.070500,0.024576
0.071000,0.042931
0.071500,0.057422
0.072000,0.067083
0.072500,0.073845
0.073000,0.079320
0.073500,0.083828
0.074000,0.084472
0.074500,0.086082
0.075000,0.079964
0.075500,0.069981
0.076000,0.056134
0.076500,0.040677
0.077000,0.026508
0.077500,0.014271
0.078000,0.002356
0.078500,0.013627
0.079000,0.033592
0.079500,0.050982
0.080000,0.062574
0.080500,0.071591
0.081000,0.077066
0.081500,0.080286
0.082000,0.083184
0.082500,0.085760
0.083000,0.081252
0.083500,0.076421
0.084000,0.067405
0.084500,0.053880
0.085000,0.040033
0.085500,0.024898
0.086000,0.012983
0.086500,-0.003440
0.087000,0.019101
0.087500,0.036813
0.088000,0.052270
0.088500,0.063541
0.089000,0.072235
0.089500,0.078354
0.090000,0.081574
0.090500,0.085438
0.091000,0.083506
0.091500,0.080608
0.092000,0.070947
0.092500,0.062252
0.093000,0.045507
0.093500,0.033270
0.094000,0.018779
0.094500,0.006864
0.095000,0.008475
0.095500,0.025542
0.096000,0.043897
0.096500,0.058066
0.097000,0.067405
0.097500,0.076099
0.098000,0.080608
0.098500,0.085438
0.099000,0.087048
0.099500,0.083828
0.100000,0.078676
0.100500,0.072557
0.101000,0.059032
0.101500,0.043897
0.102000,0.029406
0.102500,0.015559
0.103000,0.003000
0.103500,0.011695
0.104000,0.031338
0.104500,0.049372
0.105000,0.058710
0.105500,0.069337
0.106000,0.076099
0.106500,0.079964
0.107000,0.085116
0.107500,0.085116
0.108000,0.082218
0.108500,0.075455
0.109000,0.067083
0.109500,0.052914
0.110000,0.034880
0.110500,0.021356
0.111000,0.010729
0.111500,0.003000
0.112000,0.019745
0.112500,0.037779
0.113000,0.055168
0.113500,0.064185
0.114000,0.071591
0.114500,0.077066
0.115000,0.082862
0.115500,0.085116
0.116000,0.083184
0.116500,0.080286
0.117000,0.074489
0.117500,0.063541
0.118000,0.049372
0.118500,0.035525
0.119000,0.022000
0.119500,0.008797
0.120000,0.007187
0.120500,0.024254
0.121000,0.041965
0.121500,0.056134
0.122000,0.066439
0.122500,0.075133
0.123000,0.078998
0.123500,0.084150
0.124000,0.087048
0.124500,0.085116
0.125000,0.078998
0.125500,0.071269
0.126000,0.059354
0.126500,0.043897
0.127000,0.029728
0.127500,0.016203
0.128000,0.002678
0.128500,0.013305
0.129000,0.031982
0.129500,0.049050
0.130000,0.061930
0.130500,0.071913
0.131000,0.077066
0.131500,0.081574
0.132000,0.084794
0.132500,0.086082
0.133000,0.083506
0.133500,0.076743
0.134000,0.066117
0.134500,0.052914
0.135000,0.038101
0.135500,0.024576
0.136000,0.011373
0.136500,-0.002152
0.137000,0.018457
0.137500,0.037135
0.138000,0.052914
0.138500,0.062897
0.139000,0.071913
0.139500,0.075133
0.140000,0.081574
0.140500,0.084794
0.141000,0.082862
0.141500,0.081574
0.142000,0.073523
0.142500,0.062897
0.143000,0.048405
0.143500,0.033270
0.144000,0.021033
0.144500,0.006542
0.145000,0.009119
0.145500,0.024576
0.146000,0.043253
0.146500,0.056134
0.147000,0.066117
0.147500,0.076099
0.148000,0.079320
0.148500,0.083828
0.149000,0.087370
0.149500,0.085116
0.150000,0.079642
0.150500,0.069981
0.151000,0.059032
0.151500,0.046151
0.152000,0.031660
0.152500,0.016525
0.153000,0.003322
0.153500,0.011695
0.154000,0.029084
0.154500,0.048727
0.155000,0.061286
0.155500,0.070625
0.156000,0.075455
0.156500,0.081252
0.157000,0.085116
0.157500,0.084794
0.158000,0.081574
0.158500,0.076743
0.159000,0.066117
0.159500,0.053880
0.160000,0.037779
0.160500,0.024898
0.161000,0.010085
0.161500,0.004288
0.162000,0.019423
0.162500,0.037135
0.163000,0.053236
0.163500,0.062574
0.164000,0.072879
0.164500,0.077066
0.165000,0.084794
0.165500,0.086726
0.166000,0.085438
0.166500,0.078676
0.167000,0.074167
0.167500,0.063219
0.168000,0.049694
0.168500,0.033914
0.169000,0.021678
0.169500,0.006864
0.170000,0.005898
0.170500,0.022644
0.171000,0.040677
0.171500,0.056134
0.172000,0.066761
0.172500,0.073523
0.173000,0.078676
0.173500,0.082862
0.174000,0.084472
0.174500,0.082218
0.175000,0.077710
0.175500,0.071591
0.176000,0.059354
0.176500,0.042931
0.177000,0.028118
0.177500,0.015881
0.178000,0.002356
0.178500,0.013627
0.179000,0.032626
0.179500,0.050338
0.180000,0.061930
0.180500,0.071269
0.181000,0.077710
0.181500,0.080930
0.182000,0.084472
0.182500,0.084794
0.183000,0.081896
0.183500,0.077710
0.184000,0.068371
0.184500,0.056456
0.185000,0.041965
0.185500,0.027474
0.186000,0.012017
0.186500,-0.001186
0.187000,0.017169
0.187500,0.033914
0.188000,0.051304
0.188500,0.062574
0.189000,0.071913
0.189500,0.077710
0.190000,0.082218
0.190500,0.084794
0.191000,0.084150
0.191500,0.080286
0.192000,0.074167
0.192500,0.063541
0.193000,0.046473
0.193500,0.033592
0.194000,0.021033
0.194500,0.006542
0.195000,0.009441
0.195500,0.027152
0.196000,0.042931
0.196500,0.056134
0.197000,0.067083
0.197500,0.075133
0.198000,0.078354
0.198500,0.083184
0.199000,0.085438
0.199500,0.083506
0.200000,0.079320
0.200500,0.072879
0.201000,0.059032
0.201500,0.043253
0.202000,0.030372
0.202500,0.016525
0.203000,0.003644
0.203500,0.011695
0.204000,0.030694
0.204500,0.047439
0.205000,0.060642
0.205500,0.069015
0.206000,0.076099
0.206500,0.078998
0.207000,0.084472
0.207500,0.084794
0.208000,0.082218
0.208500,0.077388
0.209000,0.068049
0.209500,0.054524
0.210000,0.038745
0.210500,0.023932
0.211000,0.012339
0.211500,0.003966
0.212000,0.018457
0.212500,0.038423
0.213000,0.053558
0.213500,0.062252
0.214000,0.074811
0.214500,0.079642
0.215000,0.083828
0.215500,0.086726
0.216000,0.083828
0.216500,0.081252
0.217000,0.074811
0.217500,0.066117
0.218000,0.050660
0.218500,0.034558
0.219000,0.019101
0.219500,0.007187
0.220000,0.006542
0.220500,0.024898
0.221000,0.040999
0.221500,0.056778
0.222000,0.066117
0.222500,0.073845
0.223000,0.077710
0.223500,0.083828
0.224000,0.084794
0.224500,0.083506
0.225000,0.080608
0.225500,0.071269
0.226000,0.059676
0.226500,0.046151
0.227000,0.031016
0.227500,0.016203
0.228000,0.003000
0.228500,0.013305
0.229000,0.032304
0.229500,0.049694
0.230000,0.062252
0.230500,0.070625
0.231000,0.077066
0.231500,0.080608
0.232000,0.084472
0.232500,0.086726
0.233000,0.084150
0.233500,0.077710
0.234000,0.068371
0.234500,0.054524
0.235000,0.038745
0.235500,0.025220
0.236000,0.011373
0.236500,-0.001508
0.237000,0.017813
0.237500,0.036813
0.238000,0.052592
0.238500,0.062574
0.239000,0.071913
0.239500,0.078354
0.240000,0.084794
0.240500,0.086404
0.241000,0.085116
0.241500,0.082862
0.242000,0.075455
0.242500,0.067083
0.243000,0.051626
0.243500,0.035525
0.244000,0.022000
0.244500,0.008797
0.245000,0.007831
0.245500,0.026830
0.246000,0.044541
0.246500,0.057100
0.247000,0.067405
0.247500,0.074489
0.248000,0.078354
0.248500,0.082218
0.249000,0.084150
0.249500,0.082218
0.250000,0.080930
0.250500,0.071913
0.251000,0.059354
0.251500,0.043575
0.252000,0.031016
0.252500,0.015237
0.253000,0.003000
0.253500,0.011373
0.254000,0.030694
0.254500,0.048727
0.255000,0.058388
0.255500,0.069015
0.256000,0.073845
0.256500,0.079642
0.257000,0.086082
0.257500,0.084150
0.258000,0.082218
0.258500,0.077710
0.259000,0.066761
0.259500,0.054202
0.260000,0.038745
0.260500,0.025220
0.261000,0.010085
0.261500,0.004610
0.262000,0.018779
0.262500,0.035847
0.263000,0.053558
0.263500,0.065473
0.264000,0.073523
0.264500,0.078676
0.265000,0.082862
0.265500,0.086404
0.266000,0.084794
0.266500,0.082218
0.267000,0.074811
0.267500,0.062252
0.268000,0.050338
0.268500,0.035203
0.269000,0.020067
0.269500,0.007187
0.270000,0.004610
0.270500,0.022000
0.271000,0.040999
0.271500,0.057100
0.272000,0.064507
0.272500,0.074167
0.273000,0.078354
0.273500,0.082862
0.274000,0.086082
0.274500,0.083828
0.275000,0.078354
0.275500,0.071269
0.276000,0.059032
0.276500,0.045185
0.277000,0.028762
0.277500,0.015559
0.278000,0.001068
0.278500,0.013305
0.279000,0.032304
0.279500,0.049050
0.280000,0.065473
0.280500,0.070625
0.281000,0.078354
0.281500,0.082862
0.282000,0.083506
0.282500,0.085116
0.283000,0.083828
0.283500,0.080286
0.284000,0.068693
0.284500,0.054846
0.285000,0.040355
0.285500,0.025864
0.286000,0.014271
0.286500,-0.000220
0.287000,0.017169
0.287500,0.036169
0.288000,0.053236
0.288500,0.064185
0.289000,0.073523
0.289500,0.078354
0.290000,0.083184
0.290500,0.083828
0.291000,0.084472
0.291500,0.081252
0.292000,0.078032
0.292500,0.062574
0.293000,0.049372
0.293500,0.034236
0.294000,0.020067
0.294500,0.009119
0.295000,0.009441
0.295500,0.027152
0.296000,0.043253
0.296500,0.058388
0.297000,0.067727
0.297500,0.075455
0.298000,0.079320
0.298500,0.086726
0.299000,0.084794
0.299500,0.084150
0.300000,0.079642
0.300500,0.072235
0.301000,0.061286
0.301500,0.046473
0.302000,0.032626
0.302500,0.018457
0.303000,0.002678
0.303500,0.011051
0.304000,0.029728
0.304500,0.048405
0.305000,0.060642
0.305500,0.069015
0.306000,0.076099
0.306500,0.080286
0.307000,0.085116
0.307500,0.085116
0.308000,0.083184
0.308500,0.076743
0.309000,0.068693
0.309500,0.054202
0.310000,0.038745
0.310500,0.024576
0.311000,0.010407
0.311500,0.004288
0.312000,0.019101
0.312500,0.038423
0.313000,0.053880
0.313500,0.067083
0.314000,0.073845
0.314500,0.081574
0.315000,0.085760
0.315500,0.086404
0.316000,0.086404
0.316500,0.082218
0.317000,0.075133
0.317500,0.064829
0.318000,0.049694
0.318500,0.034880
0.319000,0.022966
0.319500,0.008797
0.320000,0.003966
0.320500,0.023288
0.321000,0.043253
0.321500,0.055490
0.322000,0.066117
0.322500,0.073523
0.323000,0.079320
0.323500,0.083184
0.324000,0.084472
0.324500,0.082540
0.325000,0.078032
0.325500,0.071591
0.326000,0.058388
0.326500,0.043897
0.327000,0.030694
0.327500,0.015559
0.328000,0.003322
0.328500,0.013627
0.329000,0.032948
0.329500,0.049694
0.330000,0.061286
0.330500,0.071269
0.331000,0.076743
0.331500,0.081574
0.332000,0.085438
0.332500,0.086726
0.333000,0.083828
0.333500,0.080608
0.334000,0.067727
0.334500,0.056456
0.335000,0.040999
0.335500,0.028440
0.336000,0.012983
0.336500,-0.002796
0.337000,0.016847
0.337500,0.036813
0.338000,0.052270
0.338500,0.062574
0.339000,0.072235
0.339500,0.077066
0.340000,0.083506
0.340500,0.084150
0.341000,0.085438
0.341500,0.079964
0.342000,0.074811
0.342500,0.062574
0.343000,0.048727
0.343500,0.034558
0.344000,0.022000
0.344500,0.007187
0.345000,0.007831
0.345500,0.027152
0.346000,0.043575
0.346500,0.058066
0.347000,0.067405
0.347500,0.075133
0.348000,0.078676
0.348500,0.084472
0.349000,0.086726
0.349500,0.084472
0.350000,0.079320
0.350500,0.073201
0.351000,0.061286
0.351500,0.045829
0.352000,0.033270
0.352500,0.016847
0.353000,0.004288
0.353500,0.011373
0.354000,0.029406
0.354500,0.046151
0.355000,0.058388
0.355500,0.068693
0.356000,0.075777
0.356500,0.080608
0.357000,0.085116
0.357500,0.086726
0.358000,0.084472
0.358500,0.077710
0.359000,0.068693
0.359500,0.054202
0.360000,0.039067
0.360500,0.023610
0.361000,0.011051
0.361500,0.004288
0.362000,0.017169
0.362500,0.034558
0.363000,0.051948
0.363500,0.064507
0.364000,0.073845
0.364500,0.080930
0.365000,0.087370
0.365500,0.086726
0.366000,0.087048
0.366500,0.081574
0.367000,0.075133
0.367500,0.065473
0.368000,0.050338
0.368500,0.036491
0.369000,0.022644
0.369500,0.008475
0.370000,0.005898
0.370500,0.022644
0.371000,0.041321
0.371500,0.054524
0.372000,0.066761
0.372500,0.073845
0.373000,0.078676
0.373500,0.084150
0.374000,0.085438
0.374500,0.083184
0.375000,0.079642
0.375500,0.072235
0.376000,0.060642
0.376500,0.045185
0.377000,0.027796
0.377500,0.014271
0.378000,0.003644
0.378500,0.012017
0.379000,0.031338
0.379500,0.049372
0.380000,0.060964
0.380500,0.069981
0.381000,0.078032
0.381500,0.080608
0.382000,0.086404
0.382500,0.085116
0.383000,0.083506
0.383500,0.078676
0.384000,0.069337
0.384500,0.054846
0.385000,0.041321
0.385500,0.026508
0.386000,0.014593
0.386500,-0.001186
0.387000,0.018135
0.387500,0.035525
0.388000,0.053236
0.388500,0.062897
0.389000,0.072235
0.389500,0.077066
0.390000,0.082862
0.390500,0.084794
0.391000,0.085116
0.391500,0.080930
0.392000,0.075777
0.392500,0.067405
0.393000,0.050016
0.393500,0.034558
0.394000,0.025542
0.394500,0.007509
0.395000,0.006542
0.395500,0.023288
0.396000,0.040999
0.396500,0.056456
0.397000,0.067083
0.397500,0.074811
0.398000,0.078676
0.398500,0.084794
0.399000,0.087048
0.399500,0.084472
0.400000,0.079964
0.400500,0.073523
0.401000,0.059354
0.401500,0.046795
0.402000,0.028762
0.402500,0.015559
0.403000,0.003000
0.403500,0.011695
0.404000,0.030050
0.404500,0.048083
0.405000,0.059032
0.405500,0.070625
0.406000,0.076099
0.406500,0.080286
0.407000,0.085438
0.407500,0.085116
0.408000,0.083506
0.408500,0.077710
0.409000,0.067727
0.409500,0.054846
0.410000,0.039067
0.410500,0.025220
0.411000,0.011695
0.411500,0.004288
0.412000,0.020067
0.412500,0.036813
0.413000,0.052270
0.413500,0.062252
0.414000,0.071913
0.414500,0.078676
0.415000,0.087370
0.415500,0.088014
0.416000,0.086082
0.416500,0.081574
0.417000,0.075133
0.417500,0.065795
0.418000,0.049694
0.418500,0.035525
0.419000,0.023288
0.419500,0.007187
0.420000,0.004610
0.420500,0.022644
0.421000,0.040355
0.421500,0.057100
0.422000,0.066761
0.422500,0.072557
0.423000,0.078998
0.423500,0.084794
0.424000,0.085438
0.424500,0.084150
0.425000,0.079964
0.425500,0.071591
0.426000,0.060320
0.426500,0.044219
0.427000,0.028440
0.427500,0.016525
0.428000,0.002034
0.428500,0.011373
0.429000,0.031016
0.429500,0.049372
0.430000,0.061930
0.430500,0.068693
0.431000,0.080286
0.431500,0.080930
0.432000,0.085116
0.432500,0.085116
0.433000,0.080286
0.433500,0.078032
0.434000,0.070303
0.434500,0.053880
0.435000,0.038745
0.435500,0.025542
0.436000,0.013627
0.436500,-0.000864
0.437000,0.015237
0.437500,0.036169
0.438000,0.050660
0.438500,0.060964
0.439000,0.072235
0.439500,0.076743
0.440000,0.082862
0.440500,0.084150
0.441000,0.084794
0.441500,0.080286
0.442000,0.075133
0.442500,0.063541
0.443000,0.052270
0.443500,0.033914
0.444000,0.021033
0.444500,0.007831
0.445000,0.008153
0.445500,0.024576
0.446000,0.042609
0.446500,0.056456
0.447000,0.067727
0.447500,0.075133
0.448000,0.078998
0.448500,0.083828
0.449000,0.084794
0.449500,0.084150
0.450000,0.079964
0.450500,0.077066
0.451000,0.060964
0.451500,0.045507
0.452000,0.031660
0.452500,0.018135
0.453000,0.004610
0.453500,0.011373
0.454000,0.028440
0.454500,0.046151
0.455000,0.057100
0.455500,0.069337
0.456000,0.074489
0.456500,0.079642
0.457000,0.086726
0.457500,0.086404
0.458000,0.083184
0.458500,0.077066
0.459000,0.069659
0.459500,0.056134
0.460000,0.039389
0.460500,0.025542
0.461000,0.009119
0.461500,0.001712
0.462000,0.018135
0.462500,0.038101
0.463000,0.055168
0.463500,0.065795
0.464000,0.073845
0.464500,0.079964
0.465000,0.084794
0.465500,0.086726
0.466000,0.085438
0.466500,0.082862
0.467000,0.074489
0.467500,0.064185
0.468000,0.050660
0.468500,0.035847
0.469000,0.022966
0.469500,0.008797
0.470000,0.005254
0.470500,0.022644
0.471000,0.040355
0.471500,0.057422
0.472000,0.066439
0.472500,0.076099
0.473000,0.078676
0.473500,0.087370
0.474000,0.084794
0.474500,0.084794
0.475000,0.077710
0.475500,0.075455
0.476000,0.059998
0.476500,0.046795
0.477000,0.031660
0.477500,0.017491
0.478000,0.004610
0.478500,0.013305
0.479000,0.029084
0.479500,0.046795
0.480000,0.059354
0.480500,0.069015
0.481000,0.075133
0.481500,0.078998
0.482000,0.084794
0.482500,0.086082
0.483000,0.082540
0.483500,0.078354
0.484000,0.069981
0.484500,0.056134
0.485000,0.040677
0.485500,0.026830
0.486000,0.013949
0.486500,-0.003118
0.487000,0.016525
0.487500,0.036169
0.488000,0.049694
0.488500,0.064185
0.489000,0.073523
0.489500,0.078354
0.490000,0.083828
0.490500,0.086404
0.491000,0.086082
0.491500,0.079642
0.492000,0.075455
0.492500,0.064829
0.493000,0.049050
0.493500,0.034558
0.494000,0.019423
0.494500,0.007831
0.495000,0.007509
0.495500,0.023932
0.496000,0.040999
0.496500,0.059354
0.497000,0.066117
0.497500,0.075133
0.498000,0.078032
0.498500,0.083828
0.499000,0.087692
0.499500,0.085116
0.500000,0.080286
0.500500,0.074811
0.501000,0.060320
0.501500,0.046795
0.502000,0.031660
0.502500,0.017813
0.503000,0.003322
0.503500,0.011373
0.504000,0.029084
0.504500,0.046473
0.505000,0.060642
0.505500,0.068049
0.506000,0.078676
0.506500,0.079964
0.507000,0.084794
0.507500,0.085760
0.508000,0.083184
0.508500,0.078354
0.509000,0.069337
0.509500,0.056134
0.510000,0.040999
0.510500,0.025542
0.511000,0.011695
0.511500,0.003966
0.512000,0.017813
0.512500,0.036169
0.513000,0.052270
